    P[dbar]   T[ITS90]      Theta   Salinite      Gamma   Ox[ml/l]  Ox[um/kg]    Fluo[V]    F[Urel]   CSTAR[V]    C660[%]  C660[m-1]
      0.000    24.9100    24.9098    38.4707    25.9947    3.95391    171.703     1.2527     0.2087     4.4335    89.6621     0.1091
      1.000    24.9100    24.9098    38.4707    25.9947    3.95391    171.703     1.2527     0.2087     4.4335    89.6621     0.1091
      2.000    25.0751    25.0747    38.4736    25.9460    3.93098    170.713     1.1483     0.1502     4.4362    89.7184     0.1085
      3.000    25.0028    25.0019    38.4758    25.9697    3.94970    171.523     1.1540     0.1525     4.4389    89.7736     0.1079
      4.000    25.0028    25.0019    38.4751    25.9697    3.94970    171.523     1.1493     0.1506     4.4449    89.8964     0.1065
      5.000    24.9039    24.9028    38.4690    25.9956    3.96995    172.399     1.1540     0.1525     4.4491    89.9824     0.1056
      6.000    24.5433    24.5420    38.4564    26.0966    3.98849    173.192     1.1540     0.1525     4.4530    90.0634     0.1047
      7.000    24.1328    24.1313    38.4436    26.2115    4.05295    175.977     1.1561     0.1533     4.4572    90.1486     0.1037
      8.000    23.1617    23.1600    38.3941    26.4634    4.16126    180.654     1.1530     0.1521     4.4574    90.1527     0.1037
      9.000    22.2621    22.2603    38.3547    26.6949    4.28556    186.029     1.1530     0.1521     4.4585    90.1751     0.1034
     10.000    21.2850    21.2830    38.3348    26.9565    4.41245    191.514     1.1530     0.1521     4.4585    90.1751     0.1034
     11.000    20.4223    20.4202    38.3481    27.2045    4.53240    196.700     1.1570     0.1536     4.4585    90.1751     0.1034
     12.000    19.9135    19.9113    38.3402    27.3359    4.61919    200.458     1.1575     0.1538     4.4502    90.0070     0.1053
     13.000    19.4065    19.4041    38.3387    27.4696    4.71113    204.441     1.1643     0.1565     4.4476    89.9518     0.1059
     14.000    18.8761    18.8736    38.3369    27.6070    4.79616    208.124     1.1651     0.1569     4.4385    89.7663     0.1079
     15.000    18.6117    18.6090    38.3330    27.6724    4.85518    210.683     1.1673     0.1577     4.4335    89.6634     0.1091
     16.000    18.3383    18.3355    38.3420    27.7493    4.87935    211.727     1.1704     0.1590     4.4259    89.5067     0.1109
     17.000    18.2656    18.2626    38.3427    27.7684    4.89578    212.439     1.1814     0.1635     4.4194    89.3742     0.1123
     18.000    17.8587    17.8556    38.3363    27.8662    4.93132    213.980     1.1855     0.1652     4.4077    89.1336     0.1150
     19.000    17.4795    17.4762    38.3562    27.9760    4.96676    215.512     1.1892     0.1668     4.3979    88.9342     0.1173
     20.000    17.0941    17.0907    38.3465    28.0634    5.01325    217.529     1.1945     0.1691     4.3888    88.7475     0.1194
     21.000    16.7317    16.7282    38.3468    28.1516    5.03085    218.291     1.1990     0.1710     4.3877    88.7231     0.1197
     22.000    16.5689    16.5653    38.3519    28.1947    5.03085    218.291     1.2057     0.1739     4.3874    88.7184     0.1197
     23.000    16.3603    16.3565    38.3543    28.2463    5.03085    218.291     1.2057     0.1739     4.3859    88.6869     0.1201
     24.000    16.1592    16.1553    38.3558    28.2952    5.02494    218.035     1.2067     0.1744     4.3820    88.6079     0.1210
     25.000    15.8246    15.8206    38.3645    28.3804    5.02494    218.035     1.2172     0.1791     4.3732    88.4280     0.1230
     26.000    15.5473    15.5432    38.3706    28.4494    5.02494    218.035     1.2196     0.1801     4.3685    88.3312     0.1241
     27.000    15.2797    15.2755    38.3766    28.5156    5.03474    218.461     1.2403     0.1898     4.3532    88.0174     0.1276
     28.000    15.1124    15.1080    38.3820    28.5578    5.03566    218.500     1.2536     0.1962     4.3389    87.7243     0.1310
     29.000    14.9570    14.9525    38.3878    28.5975    5.03646    218.535     1.2711     0.2050     4.3197    87.3291     0.1355
     30.000    14.8180    14.8134    38.3939    28.6335    5.03646    218.535     1.2835     0.2115     4.3131    87.1946     0.1370
     31.000    14.7133    14.7086    38.3985    28.6605    5.03646    218.535     1.3038     0.2225     4.3003    86.9323     0.1400
     32.000    14.6358    14.6309    38.4042    28.6822    5.03471    218.460     1.3337     0.2395     4.2947    86.8172     0.1414
     33.000    14.4548    14.4498    38.4089    28.7260    5.02836    218.185     1.3347     0.2401     4.2744    86.4002     0.1462
     34.000    14.3279    14.3228    38.4042    28.7504    5.01474    217.596     1.3571     0.2538     4.2553    86.0090     0.1507
     35.000    14.2696    14.2643    38.4061    28.7647    4.98204    216.178     1.4085     0.2877     4.2429    85.7558     0.1537
     36.000    14.1677    14.1623    38.4035    28.7849    4.95554    215.030     1.4404     0.3113     4.2047    84.9710     0.1629
     37.000    14.0723    14.0668    38.3969    28.8007    4.91317    213.193     1.4677     0.3327     4.1905    84.6799     0.1663
     38.000    13.9825    13.9769    38.4007    28.8232    4.88622    212.024     1.5509     0.4070     4.1905    84.6799     0.1663
     39.000    13.9180    13.9122    38.4156    28.8487    4.86261    210.998     1.5879     0.4439     4.1905    84.6799     0.1663
     40.000    13.8957    13.8898    38.4263    28.8618    4.82964    209.566     1.6220     0.4818     4.1964    84.8022     0.1648
     41.000    13.8303    13.8243    38.4296    28.8785    4.82924    209.549     1.6527     0.5185     4.1970    84.8129     0.1647
     42.000    13.8147    13.8085    38.4327    28.8842    4.81076    208.747     1.6769     0.5489     4.1972    84.8175     0.1647
     43.000    13.7777    13.7714    38.4342    28.8934    4.74546    205.914     1.6884     0.5641     4.2023    84.9235     0.1634
     44.000    13.7337    13.7273    38.4284    28.8984    4.67922    203.041     1.6945     0.5723     4.2148    85.1791     0.1604
     45.000    13.6829    13.6763    38.4189    28.9020    4.59283    199.294     1.6945     0.5723     4.2259    85.4073     0.1577
     46.000    13.6193    13.6126    38.4190    28.9156    4.50882    195.650     1.6999     0.5796     4.2411    85.7180     0.1541
     47.000    13.5666    13.5598    38.4216    28.9289    4.45455    193.295     1.6999     0.5796     4.2522    85.9453     0.1514
     48.000    13.5387    13.5317    38.4223    28.9354    4.40283    191.051     1.6999     0.5796     4.2662    86.2332     0.1481
     49.000    13.5371    13.5300    38.4324    28.9436    4.35115    188.808     1.7089     0.5921     4.2913    86.7469     0.1422
     50.000    13.5146    13.5074    38.4329    28.9488    4.30727    186.903     1.7124     0.5970     4.3002    86.9298     0.1400
     51.000    13.5030    13.4956    38.4362    28.9538    4.23780    183.889     1.7124     0.5970     4.3165    87.2641     0.1362
     52.000    13.4767    13.4692    38.4392    28.9618    4.17033    180.961     1.7124     0.5970     4.3334    87.6112     0.1322
     53.000    13.4430    13.4353    38.4376    28.9677    4.08099    177.085     1.6965     0.5750     4.3409    87.7638     0.1305
     54.000    13.4047    13.3969    38.4316    28.9712    4.00488    173.784     1.6940     0.5716     4.3554    88.0615     0.1271
     55.000    13.3728    13.3647    38.4268    28.9745    3.96561    172.080     1.6745     0.5457     4.3745    88.4543     0.1227
     56.000    13.3717    13.3638    38.4314    28.9778    3.93305    170.667     1.6558     0.5222     4.3939    88.8521     0.1182
     57.000    13.3639    13.3557    38.4314    28.9797    3.90242    169.338     1.6266     0.4870     4.4041    89.0614     0.1158
     58.000    13.3495    13.3412    38.4311    28.9826    3.88958    168.781     1.5884     0.4446     4.4160    89.3047     0.1131
     59.000    13.3472    13.3387    38.4341    28.9854    3.87708    168.238     1.5883     0.4445     4.4218    89.4246     0.1118
     60.000    13.3457    13.3371    38.4374    28.9883    3.86851    167.866     1.5577     0.4130     4.4328    89.6490     0.1093
     61.000    13.3411    13.3322    38.4385    28.9903    3.86721    167.810     1.5411     0.3968     4.4412    89.8210     0.1073
     62.000    13.3407    13.3319    38.4398    28.9912    3.86709    167.804     1.5160     0.3736     4.4444    89.8878     0.1066
     63.000    13.3405    13.3314    38.4408    28.9922    3.85471    167.267     1.4974     0.3571     4.4485    89.9703     0.1057
     64.000    13.3271    13.3179    38.4411    28.9952    3.84299    166.758     1.4801     0.3426     4.4603    90.2125     0.1030
     65.000    13.3187    13.3094    38.4417    28.9975    3.83979    166.620     1.4612     0.3273     4.4701    90.4135     0.1008
     66.000    13.3184    13.3089    38.4416    28.9975    3.83948    166.606     1.4307     0.3039     4.4744    90.5019     0.0998
     67.000    13.3182    13.3086    38.4417    28.9976    3.83885    166.579     1.4043     0.2849     4.4769    90.5541     0.0992
     68.000    13.3182    13.3084    38.4429    28.9986    3.83885    166.579     1.3889     0.2743     4.4800    90.6163     0.0985
     69.000    13.3173    13.3074    38.4453    29.0007    3.83885    166.579     1.3675     0.2604     4.4908    90.8393     0.0961
     70.000    13.3132    13.3031    38.4462    29.0023    3.84101    166.672     1.3299     0.2373     4.4912    90.8464     0.0960
     71.000    13.3100    13.2998    38.4473    29.0039    3.84782    166.968     1.3255     0.2347     4.4915    90.8534     0.0959
     72.000    13.3087    13.2984    38.4485    29.0051    3.85343    167.211     1.3220     0.2327     4.4930    90.8842     0.0956
     73.000    13.3086    13.2981    38.4491    29.0056    3.85344    167.211     1.3099     0.2258     4.4948    90.9195     0.0952
     74.000    13.3067    13.2961    38.4509    29.0074    3.85444    167.254     1.3076     0.2245     4.4963    90.9522     0.0948
     75.000    13.3061    13.2950    38.4539    29.0102    3.85444    167.254     1.2896     0.2147     4.4992    91.0111     0.0942
     76.000    13.3061    13.2950    38.4560    29.0118    3.85444    167.254     1.2849     0.2122     4.5028    91.0841     0.0934
     77.000    13.3061    13.2950    38.4587    29.0137    3.85392    167.231     1.2720     0.2055     4.5050    91.1295     0.0929
     78.000    13.3088    13.2976    38.4612    29.0151    3.85092    167.100     1.2480     0.1935     4.5066    91.1622     0.0925
     79.000    13.3096    13.2982    38.4643    29.0174    3.84185    166.706     1.2417     0.1905     4.5084    91.1998     0.0921
     80.000    13.3110    13.2995    38.4655    29.0181    3.84139    166.686     1.2315     0.1857     4.5088    91.2061     0.0921
     81.000    13.3131    13.3015    38.4663    29.0183    3.83778    166.530     1.2301     0.1850     4.5089    91.2088     0.0920
     82.000    13.3131    13.3015    38.4675    29.0190    3.83778    166.530     1.2298     0.1848     4.5098    91.2284     0.0918
     83.000    13.3131    13.3015    38.4713    29.0220    3.83778    166.530     1.2206     0.1806     4.5108    91.2484     0.0916
     84.000    13.3116    13.2995    38.4713    29.0225    3.84195    166.710     1.2183     0.1796     4.5120    91.2738     0.0913
     85.000    13.3116    13.2995    38.4717    29.0232    3.84584    166.878     1.2183     0.1796     4.5127    91.2879     0.0911
     86.000    13.3116    13.2995    38.4723    29.0236    3.84584    166.878     1.2183     0.1796     4.5128    91.2898     0.0911
     87.000    13.3129    13.3004    38.4736    29.0241    3.84584    166.878     1.2171     0.1790     4.5139    91.3117     0.0909
     88.000    13.3154    13.3027    38.4748    29.0246    3.83856    166.562     1.2111     0.1763     4.5142    91.3182     0.0909
     89.000    13.3214    13.3086    38.4789    29.0265    3.83056    166.215     1.2041     0.1733     4.5159    91.3526     0.0904
     90.000    13.3215    13.3086    38.4818    29.0278    3.83056    166.215     1.1916     0.1678     4.5167    91.3693     0.0902
     91.000    13.3215    13.3086    38.4823    29.0282    3.83056    166.215     1.1829     0.1641     4.5170    91.3755     0.0902
     92.000    13.3215    13.3083    38.4815    29.0286    3.83384    166.357     1.1829     0.1641     4.5172    91.3786     0.0901
     93.000    13.3215    13.3080    38.4811    29.0291    3.83390    166.359     1.1829     0.1641     4.5172    91.3786     0.0901
     94.000    13.3215    13.3080    38.4817    29.0295    3.83390    166.359     1.1900     0.1672     4.5172    91.3786     0.0901
     95.000    13.3217    13.3080    38.4844    29.0309    3.83390    166.359     1.1900     0.1672     4.5175    91.3850     0.0901
     96.000    13.3268    13.3130    38.4865    29.0315    3.82968    166.175     1.1900     0.1672     4.5184    91.4051     0.0899
     97.000    13.3326    13.3186    38.4891    29.0323    3.82741    166.076     1.1710     0.1592     4.5191    91.4196     0.0897
     98.000    13.3352    13.3211    38.4899    29.0324    3.82374    165.917     1.1599     0.1548     4.5195    91.4271     0.0897
     99.000    13.3391    13.3248    38.4914    29.0328    3.81719    165.632     1.1591     0.1545     4.5195    91.4272     0.0897
    100.000    13.3456    13.3312    38.4936    29.0332    3.80776    165.223     1.1559     0.1532     4.5200    91.4383     0.0895
    101.000    13.3566    13.3420    38.4983    29.0345    3.79775    164.788     1.1511     0.1513     4.5202    91.4426     0.0895
    102.000    13.3672    13.3525    38.5025    29.0356    3.78896    164.406     1.1346     0.1451     4.5203    91.4445     0.0894
    103.000    13.3784    13.3635    38.5070    29.0367    3.77599    163.843     1.1236     0.1410     4.5203    91.4445     0.0894
    104.000    13.3826    13.3676    38.5085    29.0370    3.76870    163.526     1.1179     0.1389     4.5204    91.4455     0.0894
    105.000    13.3826    13.3676    38.5091    29.0370    3.76870    163.526     1.1132     0.1372     4.5203    91.4445     0.0894
    106.000    13.3826    13.3676    38.5096    29.0375    3.76870    163.526     1.1062     0.1347     4.5203    91.4445     0.0894
    107.000    13.3817    13.3662    38.5101    29.0386    3.76875    163.528     1.1059     0.1346     4.5204    91.4455     0.0894
    108.000    13.3808    13.3652    38.5105    29.0391    3.76875    163.528     1.1059     0.1346     4.5204    91.4461     0.0894
    109.000    13.3788    13.3631    38.5106    29.0396    3.76875    163.528     1.1042     0.1340     4.5204    91.4467     0.0894
    110.000    13.3730    13.3571    38.5098    29.0403    3.76796    163.494     1.1042     0.1340     4.5206    91.4494     0.0894
    111.000    13.3674    13.3514    38.5090    29.0409    3.76795    163.494     1.1042     0.1340     4.5211    91.4590     0.0893
    112.000    13.3607    13.3445    38.5079    29.0414    3.76760    163.478     1.1064     0.1348     4.5213    91.4640     0.0892
    113.000    13.3560    13.3397    38.5076    29.0422    3.76795    163.494     1.1158     0.1381     4.5215    91.4676     0.0892
    114.000    13.3517    13.3353    38.5076    29.0432    3.76796    163.494     1.1158     0.1381     4.5215    91.4680     0.0892
    115.000    13.3500    13.3334    38.5078    29.0437    3.77334    163.728     1.1158     0.1381     4.5223    91.4831     0.0890
    116.000    13.3461    13.3294    38.5073    29.0442    3.77691    163.883     1.1113     0.1365     4.5223    91.4840     0.0890
    117.000    13.3448    13.3279    38.5071    29.0443    3.77967    164.003     1.1050     0.1343     4.5223    91.4842     0.0890
    118.000    13.3432    13.3262    38.5070    29.0446    3.78219    164.112     1.0967     0.1315     4.5223    91.4845     0.0890
    119.000    13.3427    13.3253    38.5076    29.0454    3.78261    164.130     1.1050     0.1343     4.5224    91.4863     0.0890
    120.000    13.3420    13.3247    38.5083    29.0459    3.78283    164.140     1.0940     0.1305     4.5226    91.4892     0.0889
    121.000    13.3418    13.3246    38.5085    29.0459    3.78375    164.179     1.0932     0.1303     4.5226    91.4897     0.0889
    122.000    13.3414    13.3238    38.5086    29.0463    3.78586    164.271     1.0940     0.1305     4.5226    91.4907     0.0889
    123.000    13.3389    13.3212    38.5088    29.0470    3.79016    164.458     1.1032     0.1337     4.5227    91.4913     0.0889
    124.000    13.3383    13.3204    38.5090    29.0474    3.79119    164.502     1.1032     0.1337     4.5228    91.4947     0.0889
    125.000    13.3364    13.3182    38.5095    29.0483    3.79119    164.502     1.1039     0.1340     4.5228    91.4950     0.0889
    126.000    13.3364    13.3182    38.5097    29.0483    3.79016    164.458     1.1102     0.1362     4.5228    91.4950     0.0889
    127.000    13.3364    13.3182    38.5108    29.0494    3.78953    164.430     1.1102     0.1362     4.5228    91.4950     0.0889
    128.000    13.3377    13.3192    38.5123    29.0502    3.78603    164.278     1.1125     0.1370     4.5229    91.4954     0.0889
    129.000    13.3381    13.3194    38.5131    29.0506    3.78440    164.207     1.1102     0.1362     4.5229    91.4954     0.0889
    130.000    13.3381    13.3194    38.5136    29.0512    3.77983    164.009     1.1113     0.1365     4.5229    91.4954     0.0889
    131.000    13.3381    13.3194    38.5140    29.0514    3.77893    163.970     1.1097     0.1360     4.5229    91.4957     0.0889
    132.000    13.3375    13.3185    38.5146    29.0521    3.77770    163.917     1.1103     0.1362     4.5229    91.4958     0.0889
    133.000    13.3375    13.3185    38.5153    29.0531    3.77677    163.876     1.1063     0.1348     4.5232    91.5031     0.0888
    134.000    13.3375    13.3185    38.5175    29.0545    3.77420    163.764     1.1103     0.1362     4.5235    91.5081     0.0888
    135.000    13.3383    13.3188    38.5186    29.0551    3.77007    163.585     1.1055     0.1345     4.5236    91.5115     0.0887
    136.000    13.3391    13.3195    38.5196    29.0558    3.76729    163.464     1.1042     0.1340     4.5236    91.5115     0.0887
    137.000    13.3406    13.3208    38.5202    29.0560    3.76569    163.395     1.1012     0.1330     4.5238    91.5143     0.0887
    138.000    13.3412    13.3213    38.5209    29.0564    3.76292    163.274     1.0979     0.1318     4.5238    91.5158     0.0887
    139.000    13.3424    13.3223    38.5212    29.0564    3.76292    163.274     1.0979     0.1318     4.5238    91.5153     0.0887
    140.000    13.3435    13.3233    38.5220    29.0569    3.76292    163.274     1.0979     0.1318     4.5240    91.5196     0.0886
    141.000    13.3448    13.3244    38.5226    29.0571    3.76268    163.263     1.0993     0.1323     4.5241    91.5221     0.0886
    142.000    13.3458    13.3253    38.5230    29.0572    3.76268    163.263     1.0993     0.1323     4.5240    91.5196     0.0886
    143.000    13.3460    13.3254    38.5232    29.0574    3.76268    163.263     1.0993     0.1323     4.5242    91.5231     0.0886
    144.000    13.3465    13.3257    38.5239    29.0578    3.76268    163.263     1.0993     0.1323     4.5242    91.5239     0.0886
    145.000    13.3472    13.3263    38.5246    29.0582    3.76226    163.245     1.1014     0.1331     4.5242    91.5231     0.0886
    146.000    13.3479    13.3268    38.5248    29.0583    3.76226    163.245     1.0985     0.1320     4.5239    91.5169     0.0887
    147.000    13.3485    13.3273    38.5255    29.0587    3.76304    163.279     1.1031     0.1337     4.5239    91.5169     0.0887
    148.000    13.3502    13.3288    38.5266    29.0593    3.76485    163.358     1.1031     0.1337     4.5239    91.5164     0.0887
